> S at   500.02 seconds at    20.00 degrees for a      0.0 km deep source in the prem model with rayParam   22.763 s/deg.
    0.00    6371.0
    0.01    6370.1
    0.01    6369.1
    0.03    6367.2
    0.06    6363.5
    0.12    6356.0
    0.13    6354.8
    0.15    6353.7
    0.17    6351.3
    0.23    6346.6
    0.27    6344.6
    0.32    6342.7
    0.40    6338.8
    0.48    6334.9
    0.57    6331.0
    0.65    6327.3
    0.74    6323.2
    0.83    6319.2
    1.01    6311.0
    1.23    6301.0
    1.46    6291.0
    1.65    6282.2
    1.85    6273.5
    2.05    6264.7
    2.25    6256.0
    2.48    6246.0
    2.71    6236.0
    3.07    6221.0
    3.48    6203.5
    3.90    6186.0
    4.33    6168.5
    4.76    6151.0
    4.92    6148.2
    5.07    6145.3
    5.40    6139.7
    5.76    6134.0
    6.15    6128.3
    7.06    6117.2
    7.64    6111.6
    8.44    6106.0
    9.22    6103.8
   10.01    6101.6
   10.79    6103.8
   11.58    6106.0
   12.37    6111.6
   12.96    6117.2
   13.87    6128.3
   14.26    6134.0
   14.61    6139.7
   14.94    6145.3
   15.10    6148.2
   15.25    6151.0
   15.68    6168.5
   16.11    6186.0
   16.53    6203.5
   16.95    6221.0
   17.30    6236.0
   17.53    6246.0
   17.76    6256.0
   17.96    6264.7
   18.16    6273.5
   18.36    6282.2
   18.56    6291.0
   18.78    6301.0
   19.01    6311.0
   19.19    6319.2
   19.28    6323.2
   19.37    6327.3
   19.45    6331.0
   19.53    6334.9
   19.62    6338.8
   19.70    6342.7
   19.74    6344.6
   19.78    6346.6
   19.84    6351.3
   19.87    6353.7
   19.88    6354.8
   19.90    6356.0
   19.96    6363.5
   19.99    6367.2
   20.00    6369.1
   20.01    6370.1
   20.02    6371.0
> S at   501.82 seconds at    20.00 degrees for a      0.0 km deep source in the prem model with rayParam   24.591 s/deg.
    0.00    6371.0
    0.01    6370.1
    0.02    6369.1
    0.03    6367.2
    0.07    6363.5
    0.14    6356.0
    0.15    6354.8
    0.17    6353.7
    0.21    6351.3
    0.28    6346.6
    0.51    6344.6
    0.75    6342.7
    1.23    6338.8
    1.75    6334.9
    2.30    6331.0
    2.86    6327.3
    3.53    6323.2
    4.29    6319.2
    5.25    6315.1
    6.22    6311.0
    7.17    6309.4
    8.11    6307.8
    9.06    6306.2
   10.01    6304.6
   10.95    6306.2
   11.90    6307.8
   12.84    6309.4
   13.79    6311.0
   14.76    6315.1
   15.72    6319.2
   16.48    6323.2
   17.15    6327.3
   17.71    6331.0
   18.26    6334.9
   18.78    6338.8
   19.27    6342.7
   19.50    6344.6
   19.73    6346.6
   19.80    6351.3
   19.84    6353.7
   19.86    6354.8
   19.88    6356.0
   19.94    6363.5
   19.98    6367.2
   19.99    6369.1
   20.00    6370.1
   20.01    6371.0
> S at   502.74 seconds at    20.00 degrees for a      0.0 km deep source in the prem model with rayParam   20.405 s/deg.
    0.00    6371.0
    0.01    6370.1
    0.01    6369.1
    0.02    6367.2
    0.05    6363.5
    0.10    6356.0
    0.11    6354.8
    0.12    6353.7
    0.14    6351.3
    0.19    6346.6
    0.21    6344.6
    0.24    6342.7
    0.29    6338.8
    0.34    6334.9
    0.39    6331.0
    0.44    6327.3
    0.50    6323.2
    0.55    6319.2
    0.66    6311.0
    0.80    6301.0
    0.93    6291.0
    1.05    6282.2
    1.17    6273.5
    1.29    6264.7
    1.41    6256.0
    1.55    6246.0
    1.69    6236.0
    1.90    6221.0
    2.14    6203.5
    2.39    6186.0
    2.64    6168.5
    2.89    6151.0
    2.94    6148.2
    2.99    6145.3
    3.09    6139.7
    3.19    6134.0
    3.30    6128.3
    3.50    6117.2
    3.60    6111.6
    3.71    6106.0
    3.92    6094.7
    4.03    6089.0
    4.15    6083.3
    4.37    6072.2
    4.59    6061.0
    4.84    6048.8
    5.07    6038.3
    5.40    6023.1
    5.56    6016.0
    5.77    6006.6
    5.99    5997.1
    6.30    5984.1
    6.62    5971.0
    6.89    5963.9
    7.18    5956.7
    7.75    5945.0
    8.55    5933.1
    9.23    5927.1
   10.00    5924.7
   10.77    5927.1
   11.45    5933.1
   12.25    5945.0
   12.82    5956.7
   13.11    5963.9
   13.38    5971.0
   13.70    5984.1
   14.01    5997.1
   14.23    6006.6
   14.45    6016.0
   14.61    6023.1
   14.94    6038.3
   15.16    6048.8
   15.41    6061.0
   15.64    6072.2
   15.86    6083.3
   15.97    6089.0
   16.08    6094.7
   16.30    6106.0
   16.40    6111.6
   16.50    6117.2
   16.71    6128.3
   16.81    6134.0
   16.91    6139.7
   17.01    6145.3
   17.06    6148.2
   17.11    6151.0
   17.36    6168.5
   17.61    6186.0
   17.86    6203.5
   18.11    6221.0
   18.31    6236.0
   18.45    6246.0
   18.59    6256.0
   18.71    6264.7
   18.83    6273.5
   18.95    6282.2
   19.07    6291.0
   19.21    6301.0
   19.34    6311.0
   19.45    6319.2
   19.51    6323.2
   19.56    6327.3
   19.61    6331.0
   19.66    6334.9
   19.71    6338.8
   19.77    6342.7
   19.79    6344.6
   19.82    6346.6
   19.86    6351.3
   19.88    6353.7
   19.89    6354.8
   19.91    6356.0
   19.95    6363.5
   19.98    6367.2
   19.99    6369.1
   20.00    6370.1
   20.00    6371.0
> S at   504.45 seconds at    20.00 degrees for a      0.0 km deep source in the prem model with rayParam   21.598 s/deg.
    0.00    6371.0
    0.01    6370.1
    0.01    6369.1
    0.03    6367.2
    0.05    6363.5
    0.11    6356.0
    0.12    6354.8
    0.13    6353.7
    0.16    6351.3
    0.21    6346.6
    0.24    6344.6
    0.27    6342.7
    0.33    6338.8
    0.40    6334.9
    0.46    6331.0
    0.52    6327.3
    0.59    6323.2
    0.66    6319.2
    0.79    6311.0
    0.96    6301.0
    1.13    6291.0
    1.28    6282.2
    1.42    6273.5
    1.57    6264.7
    1.72    6256.0
    1.89    6246.0
    2.07    6236.0
    2.33    6221.0
    2.63    6203.5
    2.94    6186.0
    3.25    6168.5
    3.57    6151.0
    3.64    6148.2
    3.71    6145.3
    3.85    6139.7
    3.99    6134.0
    4.14    6128.3
    4.43    6117.2
    4.58    6111.6
    4.74    6106.0
    5.06    6094.7
    5.23    6089.0
    5.39    6083.3
    5.74    6072.2
    6.09    6061.0
    6.50    6048.8
    6.88    6038.3
    7.46    6023.1
    7.75    6016.0
    8.15    6006.6
    8.58    5997.1
    9.24    5984.1
   10.00    5971.0
   10.76    5984.1
   11.42    5997.1
   11.85    6006.6
   12.25    6016.0
   12.54    6023.1
   13.12    6038.3
   13.49    6048.8
   13.90    6061.0
   14.26    6072.2
   14.60    6083.3
   14.77    6089.0
   14.94    6094.7
   15.26    6106.0
   15.41    6111.6
   15.57    6117.2
   15.86    6128.3
   16.01    6134.0
   16.15    6139.7
   16.29    6145.3
   16.36    6148.2
   16.43    6151.0
   16.75    6168.5
   17.06    6186.0
   17.37    6203.5
   17.67    6221.0
   17.93    6236.0
   18.10    6246.0
   18.28    6256.0
   18.43    6264.7
   18.57    6273.5
   18.72    6282.2
   18.87    6291.0
   19.04    6301.0
   19.20    6311.0
   19.34    6319.2
   19.41    6323.2
   19.47    6327.3
   19.54    6331.0
   19.60    6334.9
   19.66    6338.8
   19.73    6342.7
   19.76    6344.6
   19.79    6346.6
   19.84    6351.3
   19.87    6353.7
   19.88    6354.8
   19.89    6356.0
   19.94    6363.5
   19.97    6367.2
   19.98    6369.1
   19.99    6370.1
   20.00    6371.0
> S at   506.68 seconds at    20.00 degrees for a      0.0 km deep source in the prem model with rayParam   24.056 s/deg.
    0.00    6371.0
    0.01    6370.1
    0.02    6369.1
    0.03    6367.2
    0.06    6363.5
    0.13    6356.0
    0.15    6354.8
    0.16    6353.7
    0.20    6351.3
    0.26    6346.6
    0.34    6344.6
    0.42    6342.7
    0.58    6338.8
    0.74    6334.9
    0.89    6331.0
    1.05    6327.3
    1.21    6323.2
    1.38    6319.2
    1.73    6311.0
    2.16    6301.0
    2.59    6291.0
    2.98    6282.2
    3.38    6273.5
    3.78    6264.7
    4.19    6256.0
    4.67    6246.0
    5.16    6236.0
    5.92    6221.0
    6.85    6203.5
    7.83    6186.0
    8.35    6177.2
    8.87    6168.5
    9.42    6159.7
    9.98    6151.0
   10.53    6159.7
   11.09    6168.5
   11.61    6177.2
   12.13    6186.0
   13.11    6203.5
   14.04    6221.0
   14.80    6236.0
   15.29    6246.0
   15.77    6256.0
   16.18    6264.7
   16.58    6273.5
   16.98    6282.2
   17.37    6291.0
   17.80    6301.0
   18.23    6311.0
   18.57    6319.2
   18.74    6323.2
   18.91    6327.3
   19.06    6331.0
   19.22    6334.9
   19.38    6338.8
   19.54    6342.7
   19.61    6344.6
   19.69    6346.6
   19.76    6351.3
   19.79    6353.7
   19.81    6354.8
   19.83    6356.0
   19.89    6363.5
   19.92    6367.2
   19.94    6369.1
   19.95    6370.1
   19.96    6371.0
> S at   511.10 seconds at    20.00 degrees for a      0.0 km deep source in the prem model with rayParam   16.663 s/deg.
    0.00    6371.0
    0.00    6370.1
    0.01    6369.1
    0.02    6367.2
    0.04    6363.5
    0.07    6356.0
    0.08    6354.8
    0.09    6353.7
    0.10    6351.3
    0.14    6346.6
    0.15    6344.6
    0.17    6342.7
    0.20    6338.8
    0.23    6334.9
    0.26    6331.0
    0.30    6327.3
    0.33    6323.2
    0.36    6319.2
    0.43    6311.0
    0.52    6301.0
    0.60    6291.0
    0.67    6282.2
    0.75    6273.5
    0.82    6264.7
    0.89    6256.0
    0.98    6246.0
    1.07    6236.0
    1.19    6221.0
    1.34    6203.5
    1.50    6186.0
    1.65    6168.5
    1.80    6151.0
    1.83    6148.2
    1.86    6145.3
    1.91    6139.7
    1.97    6134.0
    2.02    6128.3
    2.13    6117.2
    2.19    6111.6
    2.25    6106.0
    2.36    6094.7
    2.42    6089.0
    2.48    6083.3
    2.59    6072.2
    2.71    6061.0
    2.83    6048.8
    2.95    6038.3
    3.11    6023.1
    3.19    6016.0
    3.29    6006.6
    3.39    5997.1
    3.54    5984.1
    3.68    5971.0
    3.77    5963.9
    3.86    5956.7
    4.01    5945.0
    4.17    5933.1
    4.25    5927.1
    4.34    5921.0
    4.54    5906.3
    4.76    5891.4
    4.91    5881.3
    5.07    5871.0
    5.30    5856.8
    5.50    5845.0
    5.52    5843.8
    5.59    5839.5
    5.59    5839.3
    5.60    5839.1
    5.60    5838.7
    5.62    5837.9
    5.65    5836.2
    5.65    5835.8
    5.66    5835.4
    5.67    5834.7
    5.70    5833.1
    5.92    5821.0
    6.08    5812.3
    6.35    5798.2
    6.47    5792.5
    6.65    5783.9
    6.74    5779.5
    6.75    5778.7
    6.92    5771.0
    7.01    5767.2
    7.15    5760.6
    7.32    5753.4
    7.73    5736.0
    7.77    5734.3
    7.81    5732.6
    7.85    5730.9
    8.22    5716.0
    8.60    5701.0
    9.25    5696.3
   10.02    5694.3
   10.79    5696.3
   11.44    5701.0
   11.83    5716.0
   12.19    5730.9
   12.23    5732.6
   12.27    5734.3
   12.31    5736.0
   12.72    5753.4
   12.89    5760.6
   13.04    5767.2
   13.12    5771.0
   13.29    5778.7
   13.30    5779.5
   13.40    5783.9
   13.57    5792.5
   13.69    5798.2
   13.96    5812.3
   14.12    5821.0
   14.34    5833.1
   14.37    5834.7
   14.38    5835.4
   14.39    5835.8
   14.40    5836.2
   14.42    5837.9
   14.44    5838.7
   14.45    5839.1
   14.45    5839.3
   14.45    5839.5
   14.53    5843.8
   14.55    5845.0
   14.74    5856.8
   14.97    5871.0
   15.13    5881.3
   15.28    5891.4
   15.50    5906.3
   15.71    5921.0
   15.79    5927.1
   15.87    5933.1
   16.03    5945.0
   16.18    5956.7
   16.27    5963.9
   16.36    5971.0
   16.51    5984.1
   16.65    5997.1
   16.75    6006.6
   16.86    6016.0
   16.93    6023.1
   17.10    6038.3
   17.21    6048.8
   17.34    6061.0
   17.45    6072.2
   17.57    6083.3
   17.62    6089.0
   17.68    6094.7
   17.80    6106.0
   17.85    6111.6
   17.91    6117.2
   18.02    6128.3
   18.08    6134.0
   18.13    6139.7
   18.19    6145.3
   18.21    6148.2
   18.24    6151.0
   18.39    6168.5
   18.55    6186.0
   18.70    6203.5
   18.85    6221.0
   18.98    6236.0
   19.06    6246.0
   19.15    6256.0
   19.22    6264.7
   19.30    6273.5
   19.37    6282.2
   19.44    6291.0
   19.53    6301.0
   19.61    6311.0
   19.68    6319.2
   19.71    6323.2
   19.75    6327.3
   19.78    6331.0
   19.81    6334.9
   19.84    6338.8
   19.87    6342.7
   19.89    6344.6
   19.91    6346.6
   19.94    6351.3
   19.95    6353.7
   19.96    6354.8
   19.97    6356.0
   20.01    6363.5
   20.02    6367.2
   20.03    6369.1
   20.04    6370.1
   20.04    6371.0
> S at   511.85 seconds at    20.00 degrees for a      0.0 km deep source in the prem model with rayParam   17.241 s/deg.
    0.00    6371.0
    0.00    6370.1
    0.01    6369.1
    0.02    6367.2
    0.04    6363.5
    0.08    6356.0
    0.09    6354.8
    0.09    6353.7
    0.11    6351.3
    0.14    6346.6
    0.16    6344.6
    0.18    6342.7
    0.21    6338.8
    0.25    6334.9
    0.28    6331.0
    0.31    6327.3
    0.35    6323.2
    0.39    6319.2
    0.46    6311.0
    0.55    6301.0
    0.64    6291.0
    0.72    6282.2
    0.79    6273.5
    0.87    6264.7
    0.95    6256.0
    1.04    6246.0
    1.13    6236.0
    1.27    6221.0
    1.43    6203.5
    1.59    6186.0
    1.76    6168.5
    1.92    6151.0
    1.95    6148.2
    1.98    6145.3
    2.04    6139.7
    2.10    6134.0
    2.16    6128.3
    2.28    6117.2
    2.34    6111.6
    2.40    6106.0
    2.52    6094.7
    2.59    6089.0
    2.65    6083.3
    2.77    6072.2
    2.90    6061.0
    3.04    6048.8
    3.16    6038.3
    3.33    6023.1
    3.42    6016.0
    3.53    6006.6
    3.64    5997.1
    3.80    5984.1
    3.96    5971.0
    4.06    5963.9
    4.16    5956.7
    4.32    5945.0
    4.50    5933.1
    4.59    5927.1
    4.68    5921.0
    4.91    5906.3
    5.16    5891.4
    5.33    5881.3
    5.52    5871.0
    5.78    5856.8
    6.00    5845.0
    6.03    5843.8
    6.11    5839.5
    6.12    5839.3
    6.12    5839.1
    6.13    5838.7
    6.15    5837.9
    6.18    5836.2
    6.19    5835.8
    6.20    5835.4
    6.21    5834.7
    6.25    5833.1
    6.50    5821.0
    6.70    5812.3
    7.03    5798.2
    7.17    5792.5
    7.39    5783.9
    7.50    5779.5
    7.53    5778.7
    7.74    5771.0
    7.85    5767.2
    8.04    5760.6
    8.26    5753.4
    8.80    5736.0
    8.85    5734.3
    8.90    5732.6
    8.96    5730.9
    9.46    5716.0
   10.00    5701.0
   10.54    5716.0
   11.04    5730.9
   11.09    5732.6
   11.15    5734.3
   11.20    5736.0
   11.74    5753.4
   11.96    5760.6
   12.15    5767.2
   12.26    5771.0
   12.47    5778.7
   12.49    5779.5
   12.61    5783.9
   12.83    5792.5
   12.97    5798.2
   13.30    5812.3
   13.50    5821.0
   13.75    5833.1
   13.78    5834.7
   13.80    5835.4
   13.81    5835.8
   13.82    5836.2
   13.85    5837.9
   13.87    5838.7
   13.88    5839.1
   13.88    5839.3
   13.88    5839.5
   13.97    5843.8
   13.99    5845.0
   14.22    5856.8
   14.48    5871.0
   14.66    5881.3
   14.84    5891.4
   15.08    5906.3
   15.32    5921.0
   15.41    5927.1
   15.50    5933.1
   15.67    5945.0
   15.84    5956.7
   15.94    5963.9
   16.04    5971.0
   16.20    5984.1
   16.36    5997.1
   16.47    6006.6
   16.58    6016.0
   16.66    6023.1
   16.84    6038.3
   16.96    6048.8
   17.10    6061.0
   17.23    6072.2
   17.35    6083.3
   17.41    6089.0
   17.47    6094.7
   17.60    6106.0
   17.66    6111.6
   17.72    6117.2
   17.84    6128.3
   17.90    6134.0
   17.96    6139.7
   18.02    6145.3
   18.05    6148.2
   18.08    6151.0
   18.24    6168.5
   18.40    6186.0
   18.57    6203.5
   18.73    6221.0
   18.86    6236.0
   18.95    6246.0
   19.05    6256.0
   19.12    6264.7
   19.20    6273.5
   19.28    6282.2
   19.36    6291.0
   19.45    6301.0
   19.54    6311.0
   19.61    6319.2
   19.65    6323.2
   19.69    6327.3
   19.72    6331.0
   19.75    6334.9
   19.79    6338.8
   19.82    6342.7
   19.84    6344.6
   19.86    6346.6
   19.89    6351.3
   19.90    6353.7
   19.91    6354.8
   19.92    6356.0
   19.96    6363.5
   19.98    6367.2
   19.99    6369.1
   19.99    6370.1
   20.00    6371.0
